  Detailed Percentile spectrum:
       Value   Percentile   TotalCount 1/(1-Percentile)

       0.100     0.000000            1         1.00
       0.958     0.100000        19499         1.11
       1.287     0.200000        39059         1.25
       1.509     0.300000        58521         1.43
       1.699     0.400000        78095         1.67
       1.885     0.500000        97506         2.00
       1.982     0.550000       107310         2.22
       2.081     0.600000       117051         2.50
       2.191     0.650000       126889         2.86
       2.311     0.700000       136562         3.33
       2.457     0.750000       146255         4.00
       2.547     0.775000       151199         4.44
       2.645     0.800000       156051         5.00
       2.753     0.825000       160880         5.71
       2.873     0.850000       165794         6.67
       3.003     0.875000       170661         8.00
       3.077     0.887500       173095         8.89
       3.161     0.900000       175526        10.00
       3.253     0.912500       177967        11.43
       3.363     0.925000       180400        13.33
       3.489     0.937500       182825        16.00
       3.561     0.943750       184052        17.78
       3.647     0.950000       185258        20.00
       3.761     0.956250       186473        22.86
       3.899     0.962500       187677        26.67
       4.089     0.968750       188903        32.00
       4.223     0.971875       189505        35.56
       4.475     0.975000       190116        40.00
       4.867     0.978125       190726        45.71
       5.327     0.981250       191334        53.33
       5.839     0.984375       191946        64.00
       6.187     0.985938       192247        71.11
       6.531     0.987500       192555        80.00
       6.927     0.989062       192857        91.43
       7.555     0.990625       193162       106.67
       8.319     0.992188       193467       128.00
       8.695     0.992969       193619       142.22
       9.119     0.993750       193772       160.00
       9.655     0.994531       193923       182.86
      10.103     0.995313       194075       213.33
      10.607     0.996094       194229       256.00
      10.967     0.996484       194304       284.44
      11.207     0.996875       194380       320.00
      11.503     0.997266       194456       365.71
      11.871     0.997656       194532       426.67
      12.143     0.998047       194609       512.00
      12.343     0.998242       194648       568.89
      12.591     0.998437       194686       640.00
      12.903     0.998633       194723       731.43
      13.255     0.998828       194761       853.33
      13.423     0.999023       194799      1024.00
      13.503     0.999121       194818      1137.78
      13.599     0.999219       194837      1280.00
      13.695     0.999316       194856      1462.86
      13.879     0.999414       194875      1706.67
      14.047     0.999512       194894      2048.00
      14.255     0.999561       194904      2275.56
      14.455     0.999609       194913      2560.00
      14.575     0.999658       194924      2925.71
      14.647     0.999707       194933      3413.33
      14.775     0.999756       194942      4096.00
      14.839     0.999780       194949      4551.11
      14.847     0.999805       194951      5120.00
      14.911     0.999829       194956      5851.43
      14.943     0.999854       194962      6826.67
      15.087     0.999878       194966      8192.00
      15.103     0.999890       194968      9102.22
      15.135     0.999902       194970     10240.00
      15.287     0.999915       194973     11702.86
      15.311     0.999927       194975     13653.33
      15.423     0.999939       194978     16384.00
      15.447     0.999945       194979     18204.44
      15.455     0.999951       194980     20480.00
      15.487     0.999957       194982     23405.71
      15.487     0.999963       194982     27306.67
      15.655     0.999969       194984     32768.00
      15.655     0.999973       194984     36408.89
      15.759     0.999976       194985     40960.00
      15.759     0.999979       194985     46811.43
      15.775     0.999982       194986     54613.33
      15.791     0.999985       194988     65536.00
      15.791     0.999986       194988     72817.78
      15.791     0.999988       194988     81920.00
      15.791     0.999989       194988     93622.86
      15.791     0.999991       194988    109226.67
      15.791     0.999992       194988    131072.00
      15.791     0.999993       194988    145635.56
      15.791     0.999994       194988    163840.00
      15.791     0.999995       194988    187245.71
      15.935     0.999995       194989    218453.33
      15.935     1.000000       194989          inf
#[Mean    =        2.067, StdDeviation   =        1.238]
#[Max     =       15.928, Total count    =       194989]
#[Buckets =           27, SubBuckets     =         2048]