  Detailed Percentile spectrum:
       Value   Percentile   TotalCount 1/(1-Percentile)

       0.121     0.000000            1         1.00
       4.667     0.100000        39157         1.11
       5.431     0.200000        78085         1.25
       6.907     0.300000       117002         1.43
      10.999     0.400000       156112         1.67
      12.295     0.500000       195194         2.00
      12.735     0.550000       214585         2.22
      13.135     0.600000       234221         2.50
      13.543     0.650000       253494         2.86
      14.039     0.700000       273137         3.33
      14.703     0.750000       292533         4.00
      15.375     0.775000       302298         4.44
      16.591     0.800000       312035         5.00
      18.063     0.825000       321865         5.71
      19.023     0.850000       331592         6.67
      19.807     0.875000       341370         8.00
      20.287     0.887500       346182         8.89
      21.087     0.900000       351056        10.00
      22.383     0.912500       355870        11.43
      24.655     0.925000       360745        13.33
      29.039     0.937500       365620        16.00
      31.455     0.943750       368056        17.78
      34.751     0.950000       370507        20.00
      38.367     0.956250       372925        22.86
      42.271     0.962500       375373        26.67
      45.823     0.968750       377805        32.00
      47.583     0.971875       379034        35.56
      49.151     0.975000       380237        40.00
      50.719     0.978125       381462        45.71
      52.159     0.981250       382695        53.33
      53.407     0.984375       383905        64.00
      54.143     0.985938       384508        71.11
      55.039     0.987500       385113        80.00
      55.807     0.989062       385735        91.43
      56.511     0.990625       386330       106.67
      57.247     0.992188       386953       128.00
      57.599     0.992969       387262       142.22
      58.047     0.993750       387563       160.00
      58.559     0.994531       387863       182.86
      59.167     0.995313       388160       213.33
      59.967     0.996094       388477       256.00
      60.351     0.996484       388625       284.44
      60.671     0.996875       388773       320.00
      61.087     0.997266       388930       365.71
      61.343     0.997656       389072       426.67
      61.727     0.998047       389225       512.00
      61.919     0.998242       389302       568.89
      62.111     0.998437       389377       640.00
      62.431     0.998633       389458       731.43
      62.719     0.998828       389532       853.33
      63.039     0.999023       389609      1024.00
      63.359     0.999121       389645      1137.78
      63.583     0.999219       389683      1280.00
      63.935     0.999316       389719      1462.86
      64.351     0.999414       389759      1706.67
      64.767     0.999512       389796      2048.00
      65.055     0.999561       389817      2275.56
      65.215     0.999609       389835      2560.00
      65.343     0.999658       389853      2925.71
      65.663     0.999707       389871      3413.33
      65.855     0.999756       389891      4096.00
      65.983     0.999780       389910      4551.11
      65.983     0.999805       389910      5120.00
      66.111     0.999829       389920      5851.43
      66.239     0.999854       389929      6826.67
      66.431     0.999878       389938      8192.00
      66.495     0.999890       389944      9102.22
      66.559     0.999902       389950     10240.00
      66.687     0.999915       389955     11702.86
      66.751     0.999927       389957     13653.33
      66.943     0.999939       389963     16384.00
      67.007     0.999945       389964     18204.44
      67.071     0.999951       389966     20480.00
      67.327     0.999957       389970     23405.71
      67.391     0.999963       389973     27306.67
      67.455     0.999969       389975     32768.00
      67.455     0.999973       389975     36408.89
      67.519     0.999976       389979     40960.00
      67.519     0.999979       389979     46811.43
      67.519     0.999982       389979     54613.33
      67.583     0.999985       389980     65536.00
      67.583     0.999986       389980     72817.78
      67.647     0.999988       389981     81920.00
      67.647     0.999989       389981     93622.86
      67.775     0.999991       389982    109226.67
      67.839     0.999992       389983    131072.00
      67.839     0.999993       389983    145635.56
      67.839     0.999994       389983    163840.00
      67.839     0.999995       389983    187245.71
      67.903     0.999995       389985    218453.33
      67.903     1.000000       389985          inf
#[Mean    =       13.306, StdDeviation   =       10.094]
#[Max     =       67.840, Total count    =       389985]
#[Buckets =           27, SubBuckets     =         2048]
