  Detailed Percentile spectrum:
       Value   Percentile   TotalCount 1/(1-Percentile)

    1921.023     0.000000            1         1.00
    2367.487     0.100000        39034         1.11
    2758.655     0.200000        78106         1.25
    3139.583     0.300000       117037         1.43
    3522.559     0.400000       156117         1.67
    3921.919     0.500000       195053         2.00
    4116.479     0.550000       214556         2.22
    4321.279     0.600000       234225         2.50
    4517.887     0.650000       253613         2.86
    4714.495     0.700000       273089         3.33
    4907.007     0.750000       292549         4.00
    5001.215     0.775000       302455         4.44
    5099.519     0.800000       312005         5.00
    5197.823     0.825000       321865         5.71
    5300.223     0.850000       331848         6.67
    5394.431     0.875000       341583         8.00
    5443.583     0.887500       346214         8.89
    5492.735     0.900000       351279        10.00
    5537.791     0.912500       356010        11.43
    5582.847     0.925000       360831        13.33
    5636.095     0.937500       365987        16.00
    5656.575     0.943750       368129        17.78
    5681.151     0.950000       370702        20.00
    5705.727     0.956250       373243        22.86
    5730.303     0.962500       375660        26.67
    5754.879     0.968750       378156        32.00
    5763.071     0.971875       378991        35.56
    5775.359     0.975000       380332        40.00
    5787.647     0.978125       381595        45.71
    5799.935     0.981250       382861        53.33
    5812.223     0.984375       384119        64.00
    5820.415     0.985938       384610        71.11
    5828.607     0.987500       385105        80.00
    5865.471     0.989062       385735        91.43
    5902.335     0.990625       386331       106.67
    5943.295     0.992188       386929       128.00
    5963.775     0.992969       387210       142.22
    5988.351     0.993750       387523       160.00
    6012.927     0.994531       387822       182.86
    6041.599     0.995313       388146       213.33
    6070.271     0.996094       388444       256.00
    6086.655     0.996484       388602       284.44
    6103.039     0.996875       388750       320.00
    6119.423     0.997266       388889       365.71
    6139.903     0.997656       389049       426.67
    6160.383     0.998047       389198       512.00
    6172.671     0.998242       389279       568.89
    6184.959     0.998437       389356       640.00
    6197.247     0.998633       389428       731.43
    6209.535     0.998828       389498       853.33
    6225.919     0.999023       389582      1024.00
    6234.111     0.999121       389622      1137.78
    6242.303     0.999219       389657      1280.00
    6250.495     0.999316       389690      1462.86
    6258.687     0.999414       389722      1706.67
    6270.975     0.999512       389766      2048.00
    6275.071     0.999561       389780      2275.56
    6283.263     0.999609       389805      2560.00
    6287.359     0.999658       389817      2925.71
    6295.551     0.999707       389840      3413.33
    6299.647     0.999756       389851      4096.00
    6303.743     0.999780       389861      4551.11
    6307.839     0.999805       389870      5120.00
    6316.031     0.999829       389887      5851.43
    6320.127     0.999854       389896      6826.67
    6324.223     0.999878       389902      8192.00
    6328.319     0.999890       389908      9102.22
    6328.319     0.999902       389908     10240.00
    6332.415     0.999915       389914     11702.86
    6336.511     0.999927       389920     13653.33
    6340.607     0.999939       389924     16384.00
    6340.607     0.999945       389924     18204.44
    6344.703     0.999951       389928     20480.00
    6348.799     0.999957       389933     23405.71
    6348.799     0.999963       389933     27306.67
    6352.895     0.999969       389936     32768.00
    6352.895     0.999973       389936     36408.89
    6352.895     0.999976       389936     40960.00
    6356.991     0.999979       389939     46811.43
    6356.991     0.999982       389939     54613.33
    6361.087     0.999985       389941     65536.00
    6361.087     0.999986       389941     72817.78
    6361.087     0.999988       389941     81920.00
    6361.087     0.999989       389941     93622.86
    6365.183     0.999991       389943    109226.67
    6365.183     0.999992       389943    131072.00
    6365.183     0.999993       389943    145635.56
    6365.183     0.999994       389943    163840.00
    6365.183     0.999995       389943    187245.71
    6369.279     0.999995       389944    218453.33
    6369.279     0.999996       389944    262144.00
    6369.279     0.999997       389944    291271.11
    6369.279     0.999997       389944    327680.00
    6369.279     0.999997       389944    374491.43
    6377.471     0.999998       389945    436906.67
    6377.471     1.000000       389945          inf
#[Mean    =     3924.953, StdDeviation   =     1133.714]
#[Max     =     6373.376, Total count    =       389945]
#[Buckets =           27, SubBuckets     =         2048]
