Detailed Percentile spectrum:
       Value   Percentile   TotalCount 1/(1-Percentile)

       0.595     0.000000            1         1.00
    1563.647     0.100000        15719         1.11
    2996.223     0.200000        31438         1.25
    4546.559     0.300000        47151         1.43
    6164.479     0.400000        62832         1.67
    7708.671     0.500000        78588         2.00
    8454.143     0.550000        86438         2.22
    9232.383     0.600000        94255         2.50
   10027.007     0.650000       102161         2.86
   10862.591     0.700000       109982         3.33
   11862.015     0.750000       117813         4.00
   12435.455     0.775000       121744         4.44
   13049.855     0.800000       125710         5.00
   13778.943     0.825000       129621         5.71
   14581.759     0.850000       133534         6.67
   15441.919     0.875000       137439         8.00
   15933.439     0.887500       139407         8.89
   16490.495     0.900000       141375        10.00
   17137.663     0.912500       143335        11.43
   17940.479     0.925000       145313        13.33
   18841.599     0.937500       147276        16.00
   19333.119     0.943750       148252        17.78
   19841.023     0.950000       149243        20.00
   20398.079     0.956250       150213        22.86
   21266.431     0.962500       151189        26.67
   22020.095     0.968750       152179        32.00
   22331.391     0.971875       152666        35.56
   22609.919     0.975000       153150        40.00
   22904.831     0.978125       153640        45.71
   23298.047     0.981250       154132        53.33
   23805.951     0.984375       154621        64.00
   24084.479     0.985938       154875        71.11
   24330.239     0.987500       155116        80.00
   24674.303     0.989062       155362        91.43
   25034.751     0.990625       155604       106.67
   25362.431     0.992188       155853       128.00
   25559.039     0.992969       155971       142.22
   25755.647     0.993750       156095       160.00
   25952.255     0.994531       156222       182.86
   26148.863     0.995313       156337       213.33
   26411.007     0.996094       156467       256.00
   26525.695     0.996484       156525       284.44
   26640.383     0.996875       156585       320.00
   26820.607     0.997266       156643       365.71
   27066.367     0.997656       156707       426.67
   27312.127     0.998047       156768       512.00
   27443.199     0.998242       156796       568.89
   27590.655     0.998437       156827       640.00
   27738.111     0.998633       156860       731.43
   27869.183     0.998828       156888       853.33
   28000.255     0.999023       156920      1024.00
   28065.791     0.999121       156936      1137.78
   28131.327     0.999219       156950      1280.00
   28213.247     0.999316       156967      1462.86
   28278.783     0.999414       156982      1706.67
   28360.703     0.999512       156998      2048.00
   28393.471     0.999561       157005      2275.56
   28442.623     0.999609       157012      2560.00
   28491.775     0.999658       157020      2925.71
   28524.543     0.999707       157026      3413.33
   28590.079     0.999756       157036      4096.00
   28606.463     0.999780       157039      4551.11
   28639.231     0.999805       157044      5120.00
   28655.615     0.999829       157046      5851.43
   28688.383     0.999854       157050      6826.67
   28721.151     0.999878       157053      8192.00
   28737.535     0.999890       157055      9102.22
   28770.303     0.999902       157058     10240.00
   28786.687     0.999915       157060     11702.86
   28803.071     0.999927       157061     13653.33
   28835.839     0.999939       157063     16384.00
   28852.223     0.999945       157064     18204.44
   28868.607     0.999951       157065     20480.00
   28884.991     0.999957       157066     23405.71
   28901.375     0.999963       157067     27306.67
   28934.143     0.999969       157068     32768.00
   28934.143     0.999973       157068     36408.89
   28950.527     0.999976       157069     40960.00
   28950.527     0.999979       157069     46811.43
   28966.911     0.999982       157070     54613.33
   28966.911     0.999985       157070     65536.00
   28966.911     0.999986       157070     72817.78
   28983.295     0.999988       157071     81920.00
   28983.295     0.999989       157071     93622.86
   28983.295     0.999991       157071    109226.67
   28983.295     0.999992       157071    131072.00
   28983.295     0.999993       157071    145635.56
   28999.679     0.999994       157072    163840.00
   28999.679     1.000000       157072          inf
#[Mean    =     8462.799, StdDeviation   =     5821.456]
#[Max     =    28983.296, Total count    =       157072]
#[Buckets =           27, SubBuckets     =         2048]
